节点USB2F042671_16-04-56-391.txt的数据
Date: Wed Aug 21 16:04:56 CST 2024
User: jacky
Spectrometer: USB2+F04267
触发模式: 4
积分时间 (秒): 1.000000E-1
Scans to average: 1
启用暗噪声校正: true
启用非线性校正: false
滑动平均宽度: 0
X轴模式: Wavelengths
Number of Pixels in Spectrum: 2048
>>>>>Begin Spectral Data<<<<<
192.649	67.58
193.024	67.58
193.399	67.58
193.774	-38.28
194.148	7.09
194.523	-8.03
194.898	7.09
195.273	-38.28
195.648	-0.47
196.023	34.82
196.397	52.46
196.772	-25.68
197.147	22.21
197.521	34.82
197.896	-48.36
198.271	-63.49
198.645	4.57
199.02	7.09
199.395	-35.76
199.769	47.42
200.144	-28.2
200.518	29.77
200.893	14.65
201.267	14.65
201.642	67.58
202.016	17.17
202.391	140.68
202.765	44.9
203.14	72.62
203.514	128.08
203.889	140.68
204.263	115.47
204.637	201.17
205.012	62.54
205.386	145.72
205.76	115.47
206.134	85.23
206.509	95.31
206.883	178.49
207.257	158.32
207.631	201.17
208.006	75.14
208.38	87.75
208.754	62.54
209.128	120.52
209.502	178.49
209.876	117.99
210.25	145.72
210.624	186.05
210.998	168.41
211.372	145.72
211.746	188.57
212.12	153.28
212.494	120.52
212.868	80.19
213.242	138.16
213.616	188.57
213.99	105.39
214.364	107.91
214.737	120.52
215.111	125.56
215.485	97.83
215.859	54.98
216.233	135.64
216.606	117.99
216.98	193.61
217.354	168.41
217.727	153.28
218.101	120.52
218.475	175.97
218.848	77.67
219.222	183.53
219.595	107.91
219.969	160.84
220.343	102.87
220.716	110.43
221.09	183.53
221.463	148.24
221.837	115.47
222.21	183.53
222.583	67.58
222.957	140.68
223.33	110.43
223.704	130.6
224.077	115.47
224.45	140.68
224.823	143.2
225.197	148.24
225.57	170.93
225.943	95.31
226.316	163.36
226.69	168.41
227.063	244.02
227.436	160.84
227.809	188.57
228.182	178.49
228.555	175.97
228.928	221.34
229.302	178.49
229.675	100.35
230.048	117.99
230.421	191.09
230.794	158.32
231.167	153.28
231.539	178.49
231.912	67.58
232.285	168.41
232.658	236.46
233.031	158.32
233.404	183.53
233.777	165.89
234.149	183.53
234.522	181.01
234.895	130.6
235.268	163.36
235.64	138.16
236.013	198.65
236.386	198.65
236.758	138.16
237.131	87.75
237.504	186.05
237.876	160.84
238.249	145.72
238.621	140.68
238.994	150.76
239.366	208.74
239.739	155.8
240.111	606.99
240.484	158.32
240.856	133.12
241.229	186.05
241.601	133.12
241.973	208.74
242.346	203.69
242.718	178.49
243.09	183.53
243.463	206.21
243.835	145.72
244.207	183.53
244.579	115.47
244.952	135.64
245.324	87.75
245.696	206.21
246.068	193.61
246.44	168.41
246.812	186.05
247.184	186.05
247.556	196.13
247.928	163.36
248.3	160.84
248.672	198.65
249.044	153.28
249.416	228.9
249.788	165.89
250.16	120.52
250.532	201.17
250.904	115.47
251.276	181.01
251.647	173.45
252.019	201.17
252.391	181.01
252.763	221.34
253.135	140.68
253.506	163.36
253.878	148.24
254.25	198.65
254.621	175.97
254.993	201.17
255.364	168.41
255.736	158.32
256.108	181.01
256.479	203.69
256.851	203.69
257.222	181.01
257.594	128.08
257.965	201.17
258.336	228.9
258.708	291.91
259.079	196.13
259.451	188.57
259.822	299.48
260.193	163.36
260.565	168.41
260.936	138.16
261.307	178.49
261.678	191.09
262.05	191.09
262.421	233.94
262.792	178.49
263.163	133.12
263.534	183.53
263.905	125.56
264.276	256.63
264.647	150.76
265.018	226.38
265.389	226.38
265.76	208.74
266.131	148.24
266.502	183.53
266.873	155.8
267.244	244.02
267.615	201.17
267.986	186.05
268.357	160.84
268.727	160.84
269.098	191.09
269.469	281.83
269.84	186.05
270.211	206.21
270.581	251.59
270.952	221.34
271.323	211.26
271.693	208.74
272.064	181.01
272.434	244.02
272.805	228.9
273.175	198.65
273.546	128.08
273.916	203.69
274.287	198.65
274.657	221.34
275.028	279.31
275.398	191.09
275.769	208.74
276.139	226.38
276.509	216.3
276.88	196.13
277.25	216.3
277.62	170.93
277.99	168.41
278.361	155.8
278.731	223.86
279.101	160.84
279.471	183.53
279.841	173.45
280.211	238.98
280.582	201.17
280.952	226.38
281.322	155.8
281.692	266.71
282.062	279.31
282.432	236.46
282.802	153.28
283.172	244.02
283.541	138.16
283.911	249.06
284.281	173.45
284.651	246.54
285.021	133.12
285.391	249.06
285.76	168.41
286.13	193.61
286.5	173.45
286.87	198.65
287.239	266.71
287.609	274.27
287.978	238.98
288.348	281.83
288.718	206.21
289.087	188.57
289.457	191.09
289.826	193.61
290.196	155.8
290.565	218.82
290.935	203.69
291.304	226.38
291.673	244.02
292.043	213.78
292.412	216.3
292.781	206.21
293.151	102.87
293.52	211.26
293.889	261.67
294.259	261.67
294.628	213.78
294.997	216.3
295.366	163.36
295.735	213.78
296.104	296.96
296.473	183.53
296.842	286.87
297.212	181.01
297.581	206.21
297.95	191.09
298.318	165.89
298.687	183.53
299.056	221.34
299.425	183.53
299.794	223.86
300.163	233.94
300.532	269.23
300.901	191.09
301.269	259.15
301.638	281.83
302.007	256.63
302.376	191.09
302.744	181.01
303.113	221.34
303.482	216.3
303.85	223.86
304.219	201.17
304.587	188.57
304.956	261.67
305.324	198.65
305.693	223.86
306.061	249.06
306.43	249.06
306.798	198.65
307.166	266.71
307.535	196.13
307.903	231.42
308.272	276.79
308.64	188.57
309.008	256.63
309.376	314.6
309.745	175.97
310.113	168.41
310.481	226.38
310.849	130.6
311.217	178.49
311.585	193.61
311.953	302
312.321	216.3
312.689	271.75
313.057	261.67
313.425	175.97
313.793	216.3
314.161	228.9
314.529	178.49
314.897	261.67
315.265	221.34
315.633	296.96
316	186.05
316.368	206.21
316.736	175.97
317.104	233.94
317.471	226.38
317.839	181.01
318.207	312.08
318.574	269.23
318.942	196.13
319.31	246.54
319.677	249.06
320.045	286.87
320.412	226.38
320.78	178.49
321.147	236.46
321.514	254.11
321.882	241.5
322.249	249.06
322.617	193.61
322.984	221.34
323.351	236.46
323.718	208.74
324.086	266.71
324.453	241.5
324.82	226.38
325.187	244.02
325.554	241.5
325.922	244.02
326.289	221.34
326.656	203.69
327.023	241.5
327.39	286.87
327.757	208.74
328.124	342.33
328.491	276.79
328.858	249.06
329.225	218.82
329.591	208.74
329.958	249.06
330.325	294.43
330.692	259.15
331.059	221.34
331.425	138.16
331.792	193.61
332.159	193.61
332.525	264.19
332.892	256.63
333.259	241.5
333.625	211.26
333.992	193.61
334.358	206.21
334.725	178.49
335.091	198.65
335.458	196.13
335.824	256.63
336.191	218.82
336.557	203.69
336.923	264.19
337.29	208.74
337.656	196.13
338.022	241.5
338.389	208.74
338.755	274.27
339.121	216.3
339.487	125.56
339.853	256.63
340.219	233.94
340.586	216.3
340.952	221.34
341.318	175.97
341.684	208.74
342.05	241.5
342.416	261.67
342.782	208.74
343.147	213.78
343.513	221.34
343.879	211.26
344.245	261.67
344.611	183.53
344.977	259.15
345.342	244.02
345.708	168.41
346.074	261.67
346.439	201.17
346.805	218.82
347.171	251.59
347.536	160.84
347.902	233.94
348.267	168.41
348.633	223.86
348.998	233.94
349.364	244.02
349.729	160.84
350.095	241.5
350.46	236.46
350.826	196.13
351.191	269.23
351.556	246.54
351.921	246.54
352.287	261.67
352.652	223.86
353.017	246.54
353.382	188.57
353.747	241.5
354.113	173.45
354.478	231.42
354.843	299.48
355.208	208.74
355.573	246.54
355.938	221.34
356.303	181.01
356.668	213.78
357.032	135.64
357.397	203.69
357.762	206.21
358.127	322.16
358.492	223.86
358.857	221.34
359.221	196.13
359.586	271.75
359.951	241.5
360.315	281.83
360.68	183.53
361.045	233.94
361.409	264.19
361.774	264.19
362.138	183.53
362.503	193.61
362.867	158.32
363.232	206.21
363.596	168.41
363.96	249.06
364.325	241.5
364.689	223.86
365.053	143.2
365.418	218.82
365.782	226.38
366.146	236.46
366.51	276.79
366.874	241.5
367.239	261.67
367.603	228.9
367.967	191.09
368.331	221.34
368.695	289.39
369.059	208.74
369.423	284.35
369.787	211.26
370.151	175.97
370.515	261.67
370.878	254.11
371.242	299.48
371.606	196.13
371.97	196.13
372.334	216.3
372.697	208.74
373.061	279.31
373.425	213.78
373.788	183.53
374.152	261.67
374.516	274.27
374.879	284.35
375.243	236.46
375.606	238.98
375.97	216.3
376.333	299.48
376.696	168.41
377.06	168.41
377.423	274.27
377.786	221.34
378.15	201.17
378.513	221.34
378.876	256.63
379.24	249.06
379.603	228.9
379.966	216.3
380.329	186.05
380.692	216.3
381.055	309.56
381.418	274.27
381.781	241.5
382.144	246.54
382.507	254.11
382.87	223.86
383.233	284.35
383.596	279.31
383.959	241.5
384.322	261.67
384.684	286.87
385.047	312.08
385.41	294.43
385.773	274.27
386.135	296.96
386.498	236.46
386.861	249.06
387.223	264.19
387.586	296.96
387.948	271.75
388.311	133.12
388.673	271.75
389.036	314.6
389.398	218.82
389.76	226.38
390.123	183.53
390.485	296.96
390.847	279.31
391.21	309.56
391.572	266.71
391.934	286.87
392.296	191.09
392.659	223.86
393.021	203.69
393.383	231.42
393.745	244.02
394.107	344.85
394.469	241.5
394.831	226.38
395.193	281.83
395.555	274.27
395.917	312.08
396.279	342.33
396.64	312.08
397.002	294.43
397.364	344.85
397.726	274.27
398.087	375.09
398.449	256.63
398.811	342.33
399.172	344.85
399.534	349.89
399.896	382.66
400.257	302
400.619	365.01
400.98	367.53
401.342	523.81
401.703	370.05
402.064	445.67
402.426	473.4
402.787	511.2
403.148	513.73
403.51	571.7
403.871	478.44
404.232	554.05
404.593	468.35
404.955	498.6
405.316	591.86
405.677	579.26
406.038	624.63
406.399	677.56
406.76	644.8
407.121	733.02
407.482	743.1
407.843	818.71
408.204	826.28
408.565	871.65
408.925	1060.69
409.286	1007.76
409.647	964.91
410.008	969.95
410.368	1146.39
410.729	1179.16
411.09	1229.57
411.45	1345.52
411.811	1370.72
412.172	1484.15
412.532	1431.22
412.893	1605.13
413.253	1693.36
413.614	1756.37
413.974	1809.3
414.334	1874.84
414.695	2139.5
415.055	2091.61
415.415	2280.65
415.776	2326.02
416.136	2441.97
416.496	2653.69
416.856	2797.37
417.216	2898.19
417.577	3016.66
417.937	3177.97
418.297	3296.44
418.657	3326.69
419.017	3591.35
419.377	3684.61
419.737	3853.49
420.097	3966.92
420.456	4067.74
420.816	4360.13
421.176	4302.15
421.536	4655.03
421.896	4644.95
422.255	4730.65
422.615	5088.57
422.975	5267.53
423.334	5474.22
423.694	5668.3
424.053	5985.9
424.413	6278.28
424.772	6406.83
425.132	6454.72
425.491	6588.32
425.851	6915.99
426.21	7112.6
426.57	7218.46
426.929	7573.86
427.288	7717.53
427.647	8040.17
428.007	8176.28
428.366	8624.94
428.725	8887.08
429.084	9106.37
429.443	9580.24
429.802	9693.67
430.161	9923.04
430.52	10313.73
430.879	10601.07
431.238	11072.42
431.597	11120.31
431.956	11664.76
432.315	11634.51
432.674	12337.75
433.033	12385.64
433.391	12655.34
433.75	13129.21
434.109	13532.5
434.467	14008.89
434.826	14359.25
435.185	14271.03
435.543	15395.21
435.902	15425.46
436.26	15627.1
436.619	15974.94
436.977	16647.94
437.336	17086.52
437.694	17388.99
438.052	17794.8
438.411	17928.39
438.769	18240.94
439.127	18815.63
439.486	19082.82
439.844	19292.02
440.202	19395.37
440.56	19849.07
440.918	19844.03
441.276	20151.54
441.634	20048.2
441.992	20277.57
442.35	20234.72
442.708	20519.54
443.066	20259.92
443.424	20227.16
443.782	19985.18
444.14	19851.59
444.498	19231.53
444.855	18765.22
445.213	18482.92
445.571	18203.13
445.928	18011.57
446.286	18099.79
446.644	16978.13
447.001	16554.68
447.359	16138.78
447.716	15465.79
448.074	14760.03
448.431	14550.82
448.789	14162.65
449.146	13774.48
449.503	12922.53
449.861	12514.19
450.218	12042.84
450.575	11621.91
450.932	11253.9
451.289	11079.98
451.647	10583.43
452.004	10248.19
452.361	9912.96
452.718	9693.67
453.075	9181.99
453.432	9018.15
453.789	8756.01
454.146	8569.49
454.503	8350.2
454.859	8093.1
455.216	7868.77
455.573	7780.55
455.93	7594.03
456.287	7415.06
456.643	7205.86
457	7150.4
457.357	7049.58
457.713	6739.55
458.07	6663.93
458.426	6394.23
458.783	6185.02
459.139	6086.72
459.496	5963.21
459.852	5980.86
460.208	5905.24
460.565	5600.25
460.921	5398.6
461.277	5212.08
461.634	5048.24
461.99	5007.91
462.346	4841.56
462.702	4912.13
463.058	4680.24
463.414	4523.96
463.77	4370.21
464.126	4415.58
464.482	4241.66
464.838	4163.52
465.194	4120.67
465.55	3999.68
465.906	3740.06
466.262	3780.39
466.618	3614.03
466.973	3598.91
467.329	3485.49
467.685	3404.83
468.04	3382.14
468.396	3172.93
468.752	3107.4
469.107	3223.35
469.463	3225.87
469.818	3029.26
470.174	2918.36
470.529	2893.15
470.884	2784.76
471.24	2807.45
471.595	2769.64
471.95	2804.93
472.306	2749.48
472.661	2706.63
473.016	2696.54
473.371	2568
473.726	2608.32
474.081	2691.5
474.436	2585.64
474.791	2532.71
475.146	2671.34
475.501	2535.23
475.856	2497.42
476.211	2520.1
476.566	2499.94
476.921	2386.51
477.276	2457.09
477.63	2542.79
477.985	2454.57
478.34	2462.13
478.694	2507.5
479.049	2454.57
479.404	2472.21
479.758	2399.12
480.113	2441.97
480.467	2454.57
480.822	2545.31
481.176	2560.43
481.53	2615.89
481.885	2585.64
482.239	2628.49
482.593	2686.46
482.948	2613.37
483.302	2709.15
483.656	2699.07
484.01	2691.5
484.364	2731.83
484.718	2923.4
485.072	2920.88
485.426	2958.68
485.78	3039.34
486.134	3051.95
486.488	3135.13
486.842	3296.44
487.196	3394.74
487.55	3336.77
487.903	3571.18
488.257	3500.61
488.611	3520.77
488.964	3868.61
489.318	3800.56
489.672	3876.17
490.025	3941.71
490.379	3974.48
490.732	4201.33
491.086	4377.77
491.439	4476.07
491.793	4589.5
492.146	4738.21
492.499	5151.59
492.853	5234.77
493.206	5348.19
493.559	5476.74
493.912	5509.51
494.265	5748.96
494.618	5975.82
494.972	6114.45
495.325	6396.75
495.678	6492.53
496.031	6565.63
496.383	6888.26
496.736	7087.39
497.089	7261.31
497.442	7636.88
497.795	7747.78
498.148	8153.59
498.5	8261.98
498.853	8524.12
499.206	8791.3
499.558	8781.22
499.911	9247.52
500.264	9643.25
500.616	9766.76
500.969	9781.89
501.321	10036.46
501.673	10719.54
502.026	10931.27
502.378	11188.37
502.73	11606.78
503.083	11750.46
503.435	11904.21
503.787	12320.11
504.139	12763.73
504.491	12957.81
504.844	13345.98
505.196	13716.51
505.548	14119.8
505.9	13968.56
506.252	14586.11
506.604	14641.56
506.955	15465.79
507.307	15647.27
507.659	16017.79
508.011	16022.83
508.363	16577.36
508.714	17038.63
509.066	17210.03
509.418	17716.66
509.769	17903.19
510.121	18387.14
510.472	18414.86
510.824	18709.77
511.175	19062.65
511.527	19377.72
511.878	20020.47
512.23	20156.58
512.581	20607.76
512.932	20794.29
513.283	21033.74
513.635	21399.23
513.986	21792.44
514.337	21593.31
514.688	22430.14
515.039	22735.13
515.39	23012.39
515.741	23312.34
516.092	23655.14
516.443	24222.27
516.794	24418.88
517.145	24660.85
517.496	24726.39
517.847	25439.71
518.197	25716.97
518.548	25686.73
518.899	26331.99
519.249	26687.4
519.6	26843.67
519.951	27035.24
520.301	26833.59
520.652	27531.79
521.002	27741
521.352	28101.44
521.703	28718.98
522.053	28787.04
522.404	29144.96
522.754	29258.38
523.104	29525.57
523.454	30145.63
523.804	30380.04
524.155	30967.34
524.505	31151.34
524.855	31148.82
525.205	31715.95
525.555	31665.54
525.905	32056.22
526.255	32467.08
526.605	32303.24
526.954	33492.95
527.304	33135.03
527.654	34145.78
528.004	34032.36
528.354	34163.43
528.703	34347.43
529.053	34342.39
529.402	34334.83
529.752	34365.07
530.101	34828.86
530.451	34579.32
530.8	35045.63
531.15	35131.33
531.499	35562.35
531.849	36056.38
532.198	35963.12
532.547	36099.23
532.896	36462.19
533.246	36663.84
533.595	36613.43
533.944	37016.72
534.293	37462.86
534.642	37452.78
534.991	37939.25
535.34	37581.33
535.689	37969.5
536.038	37959.42
536.387	38208.95
536.735	37916.57
537.084	38345.06
537.433	38458.49
537.782	38350.11
538.13	38629.89
538.479	39076.03
538.828	38854.22
539.176	38650.05
539.525	38357.67
539.873	38768.52
540.222	39295.32
540.57	39038.22
540.918	39232.31
541.267	39156.69
541.615	38856.74
541.963	39701.13
542.312	39257.51
542.66	39484.36
543.008	39852.37
543.356	39668.37
543.704	40270.78
544.052	40306.07
544.4	40603.5
544.748	41120.22
545.096	40858.08
545.444	40661.47
545.792	41407.57
546.14	41198.36
546.488	41226.08
546.835	41589.05
547.183	41568.88
547.531	41873.87
547.878	41894.04
548.226	41906.64
548.573	41846.15
548.921	41684.83
549.268	41982.26
549.616	41437.81
549.963	41803.3
550.311	41387.4
550.658	41770.53
551.005	41495.79
551.353	41291.62
551.7	41604.17
552.047	41649.54
552.394	41314.3
552.741	42156.18
553.088	41946.97
553.435	41624.33
553.782	42660.29
554.129	42241.88
554.476	42433.44
554.823	43111.48
555.17	43698.77
555.517	43456.79
555.863	43638.28
556.21	44104.58
556.557	44046.61
556.904	44429.74
557.25	44190.28
557.597	44412.09
557.943	44777.58
558.29	44679.27
558.636	43998.72
558.983	44749.85
559.329	44036.53
559.675	44064.25
560.022	43928.14
560.368	43824.8
560.714	44119.71
561.06	44190.28
561.407	43822.28
561.753	44013.84
562.099	44328.91
562.445	44142.39
562.791	43850
563.137	43618.11
563.483	43907.98
563.829	43381.18
564.174	43300.52
564.52	44192.8
564.866	43597.95
565.212	44333.95
565.557	44157.51
565.903	44465.02
566.249	44709.52
566.594	45533.75
566.94	45379.99
567.285	45574.08
567.631	46214.31
567.976	46221.87
568.322	46113.48
568.667	46514.25
569.012	46370.58
569.357	46904.94
569.703	46738.59
570.048	46269.76
570.393	47444.35
570.738	46771.35
571.083	46816.72
571.428	47129.27
571.773	46829.33
572.118	46075.67
572.463	46597.43
572.808	46514.25
573.153	46562.14
573.498	46110.96
573.842	45894.19
574.187	45677.42
574.532	45695.07
574.876	45848.82
575.221	45301.86
575.566	45921.92
575.91	45969.81
576.255	45561.48
576.599	46262.2
576.944	45488.38
577.288	46484.01
577.632	45843.78
577.977	46824.28
578.321	46352.94
578.665	47419.14
579.009	47391.41
579.353	47784.62
579.697	46761.27
580.041	47681.28
580.385	47598.1
580.729	48220.68
581.073	48056.85
581.417	48555.92
581.761	48629.02
582.105	49065.08
582.449	48598.77
582.793	48475.26
583.136	49002.06
583.48	48613.89
583.824	49226.39
584.167	48681.95
584.511	48795.38
584.854	49450.73
585.198	48669.35
585.541	48268.58
585.884	47386.37
586.228	48863.43
586.571	48006.44
586.914	49019.71
587.258	48495.43
587.601	48702.11
587.944	47787.15
588.287	48185.4
588.63	47948.46
588.973	49302.01
589.316	48455.1
589.659	48261.01
590.002	48034.16
590.345	47754.38
590.688	49286.89
591.03	48981.9
591.373	49415.44
591.716	49725.47
592.059	50542.14
592.401	50637.92
592.744	50075.83
593.086	49985.09
593.429	50751.34
593.771	50743.78
594.114	50564.82
594.456	50700.93
594.798	50867.29
595.141	50068.27
595.483	50753.86
595.825	50196.82
596.167	50713.54
596.51	50390.9
596.852	50990.8
597.194	49959.88
597.536	49312.09
597.878	50458.96
598.22	49856.54
598.562	49508.7
598.903	49211.27
599.245	48787.81
599.587	49667.5
599.929	49483.49
600.27	49271.77
600.612	48404.69
600.954	48107.26
601.295	48616.42
601.637	48089.61
601.978	48392.08
602.32	48724.8
602.661	48583.65
603.003	48891.16
603.344	48820.58
603.685	48180.36
604.026	48976.86
604.368	48971.82
604.709	48407.21
605.05	48727.32
605.391	49002.06
605.732	48848.31
606.073	49269.24
606.414	49574.23
606.755	49619.6
607.096	49874.18
607.437	49244.04
607.778	49584.32
608.118	50088.43
608.459	49052.47
608.8	49486.01
609.14	49627.17
609.481	48515.59
609.821	49072.64
610.162	49143.22
610.502	49002.06
610.843	48442.5
611.183	49266.72
611.524	48747.49
611.864	48077.01
612.204	48150.11
612.544	47996.35
612.885	47782.1
613.225	47527.53
613.565	47872.84
613.905	46789
614.245	46408.39
614.585	46431.07
614.925	45705.15
615.265	45566.52
615.605	46453.76
615.944	45054.84
616.284	45110.29
616.624	45054.84
616.964	44467.55
617.303	45536.27
617.643	44744.81
617.982	45619.45
618.322	45561.48
618.661	45934.52
619.001	44959.06
619.34	44674.23
